Wavelength	Transmittance	hex_color	Manufacturer	Name	Filter Number
300	0.002		Omega	670-720-970 TRIPLE BAND Triple Band	W5346
301	0.0				
302	0.0				
303	0.0				
304	0.0				
305	0.0				
306	0.0				
307	0.0				
308	0.0				
309	0.0				
310	0.001				
311	0.001				
312	0.0				
313	0.001				
314	0.0				
315	0.001				
316	0.0				
317	0.0				
318	0.0				
319	0.0				
320	0.001				
321	0.0				
322	0.0				
323	0.0				
324	0.0				
325	0.0				
326	0.001				
327	0.001				
328	0.002				
329	0.001				
330	0.0				
331	0.0				
332	0.001				
333	0.0				
334	0.0				
335	0.001				
336	0.0				
337	0.0				
338	0.0				
339	0.0				
340	0.0				
341	0.0				
342	0.001				
343	0.0				
344	0.002				
345	0.0				
346	0.0				
347	0.001				
348	0.0				
349	0.001				
350	0.001				
351	0.0				
352	0.002				
353	0.001				
354	0.001				
355	0.0				
356	0.0				
357	0.002				
358	0.001				
359	0.0				
360	0.0				
361	0.0				
362	0.001				
363	0.0				
364	0.002				
365	0.0				
366	0.003				
367	0.003				
368	0.0				
369	0.003				
370	0.0				
371	0.0				
372	0.003				
373	0.002				
374	0.001				
375	0.003				
376	0.002				
377	0.0				
378	0.001				
379	0.0				
380	0.0				
381	0.0				
382	0.001				
383	0.001				
384	0.001				
385	0.0				
386	0.0				
387	0.0				
388	0.0				
389	0.0				
390	0.001				
391	0.0				
392	0.001				
393	0.002				
394	0.0				
395	0.0				
396	0.001				
397	0.0				
398	0.003				
399	0.003				
400	0.0				
401	0.002				
402	0.002				
403	0.003				
404	0.0				
405	0.001				
406	0.0				
407	0.0				
408	0.002				
409	0.002				
410	0.006				
411	0.003				
412	0.0				
413	0.003				
414	0.0				
415	0.0				
416	0.0				
417	0.001				
418	0.0				
419	0.0				
420	0.0				
421	0.0				
422	0.001				
423	0.0				
424	0.0				
425	0.002				
426	0.0				
427	0.002				
428	0.001				
429	0.0				
430	0.0				
431	0.0				
432	0.002				
433	0.0				
434	0.001				
435	0.001				
436	0.0				
437	0.0				
438	0.003				
439	0.002				
440	0.002				
441	0.0				
442	0.0				
443	0.0				
444	0.002				
445	0.0				
446	0.002				
447	0.0				
448	0.0				
449	0.0				
450	0.001				
451	0.0				
452	0.001				
453	0.001				
454	0.003				
455	0.0				
456	0.0				
457	0.002				
458	0.004				
459	0.0				
460	0.006				
461	0.0				
462	0.003				
463	0.01				
464	0.005				
465	0.001				
466	0.003				
467	0.0				
468	0.001				
469	0.001				
470	0.0				
471	0.002				
472	0.001				
473	0.0				
474	0.0				
475	0.0				
476	0.003				
477	0.001				
478	0.0				
479	0.002				
480	0.001				
481	0.0				
482	0.0				
483	0.0				
484	0.001				
485	0.005				
486	0.002				
487	0.002				
488	0.001				
489	0.001				
490	0.002				
491	0.005				
492	0.0				
493	0.001				
494	0.003				
495	0.003				
496	0.003				
497	0.0				
498	0.0				
499	0.0				
500	0.0				
501	0.0				
502	0.0				
503	0.006				
504	0.0				
505	0.001				
506	0.001				
507	0.001				
508	0.001				
509	0.0				
510	0.004				
511	0.002				
512	0.002				
513	0.001				
514	0.001				
515	0.005				
516	0.003				
517	0.002				
518	0.001				
519	0.001				
520	0.005				
521	0.001				
522	0.002				
523	0.003				
524	0.001				
525	0.004				
526	0.0				
527	0.002				
528	0.0				
529	0.001				
530	0.002				
531	0.001				
532	0.002				
533	0.0				
534	0.0				
535	0.001				
536	0.002				
537	0.0				
538	0.001				
539	0.0				
540	0.005				
541	0.0				
542	0.001				
543	0.0				
544	0.003				
545	0.003				
546	0.001				
547	0.0				
548	0.0				
549	0.003				
550	0.004				
551	0.0				
552	0.004				
553	0.001				
554	0.001				
555	0.0				
556	0.003				
557	0.007				
558	0.003				
559	0.0				
560	0.002				
561	0.002				
562	0.005				
563	0.005				
564	0.002				
565	0.001				
566	0.0				
567	0.0				
568	0.001				
569	0.0				
570	0.001				
571	0.0				
572	0.002				
573	0.0				
574	0.003				
575	0.002				
576	0.005				
577	0.0				
578	0.003				
579	0.004				
580	0.001				
581	0.0				
582	0.002				
583	0.005				
584	0.002				
585	0.006				
586	0.001				
587	0.001				
588	0.002				
589	0.004				
590	0.002				
591	0.0				
592	0.002				
593	0.003				
594	0.003				
595	0.0				
596	0.0				
597	0.001				
598	0.0				
599	0.005				
600	0.0				
601	0.0				
602	0.001				
603	0.001				
604	0.003				
605	0.001				
606	0.0				
607	0.0				
608	0.0				
609	0.002				
610	0.0				
611	0.0				
612	0.0				
613	0.002				
614	0.0				
615	0.006				
616	0.0				
617	0.0				
618	0.0				
619	0.003				
620	0.003				
621	0.001				
622	0.004				
623	0.003				
624	0.0				
625	0.0				
626	0.0				
627	0.007				
628	0.004				
629	0.006				
630	0.027				
631	0.088				
632	0.265				
633	0.335				
634	0.217				
635	0.137				
636	0.098				
637	0.089				
638	0.096				
639	0.125				
640	0.194				
641	0.35				
642	0.67				
643	1.292				
644	2.184				
645	3.032				
646	3.666				
647	4.21				
648	4.587				
649	4.451				
650	3.909				
651	3.424				
652	3.244				
653	3.471				
654	4.187				
655	5.706				
656	8.669				
657	14.558				
658	25.916				
659	45.036				
660	66.953				
661	79.093				
662	79.853				
663	78.158				
664	79.391				
665	83.273				
666	87.331				
667	89.466				
668	89.431				
669	88.3				
670	87.715				
671	88.254				
672	89.598				
673	91.227				
674	92.191				
675	92.188				
676	91.803				
677	91.397				
678	91.207				
679	91.598				
680	92.39				
681	93.186				
682	91.409				
683	81.279				
684	59.354				
685	34.928				
686	17.92				
687	9.096				
688	4.827				
689	2.771				
690	1.723				
691	1.145				
692	0.805				
693	0.61				
694	0.486				
695	0.411				
696	0.362				
697	0.338				
698	0.334				
699	0.344				
700	0.376				
701	0.431				
702	0.527				
703	0.689				
704	0.952				
705	1.415				
706	2.273				
707	4.011				
708	7.802				
709	16.168				
710	33.725				
711	61.145				
712	86.367				
713	96.85				
714	97.839				
715	97.681				
716	97.751				
717	97.653				
718	96.904				
719	95.985				
720	95.279				
721	94.684				
722	93.615				
723	92.132				
724	91.138				
725	91.605				
726	93.323				
727	94.898				
728	94.617				
729	91.814				
730	88.785				
731	87.236				
732	81.804				
733	61.641				
734	32.966				
735	13.818				
736	5.793				
737	2.631				
738	1.315				
739	0.706				
740	0.406				
741	0.242				
742	0.152				
743	0.099				
744	0.068				
745	0.044				
746	0.03				
747	0.023				
748	0.022				
749	0.02				
750	0.014				
751	0.012				
752	0.015				
753	0.013				
754	0.012				
755	0.017				
756	0.018				
757	0.039				
758	0.066				
759	0.105				
760	0.096				
761	0.062				
762	0.048				
763	0.03				
764	0.029				
765	0.021				
766	0.023				
767	0.026				
768	0.032				
769	0.044				
770	0.044				
771	0.042				
772	0.035				
773	0.029				
774	0.019				
775	0.013				
776	0.016				
777	0.017				
778	0.018				
779	0.022				
780	0.027				
781	0.026				
782	0.024				
783	0.022				
784	0.017				
785	0.019				
786	0.012				
787	0.009				
788	0.004				
789	0.011				
790	0.008				
791	0.004				
792	0.007				
793	0.005				
794	0.006				
795	0.0				
796	0.007				
797	0.007				
798	0.007				
799	0.006				
800	0.0				
801	0.0				
802	0.0				
803	0.003				
804	0.001				
805	0.003				
806	0.002				
807	0.001				
808	0.004				
809	0.002				
810	0.006				
811	0.004				
812	0.0				
813	0.004				
814	0.005				
815	0.004				
816	0.008				
817	0.007				
818	0.003				
819	0.011				
820	0.005				
821	0.01				
822	0.011				
823	0.011				
824	0.012				
825	0.013				
826	0.008				
827	0.013				
828	0.01				
829	0.01				
830	0.009				
831	0.006				
832	0.008				
833	0.01				
834	0.011				
835	0.003				
836	0.005				
837	0.007				
838	0.003				
839	0.005				
840	0.007				
841	0.009				
842	0.006				
843	0.005				
844	0.005				
845	0.006				
846	0.004				
847	0.007				
848	0.005				
849	0.005				
850	0.002				
851	0.007				
852	0.004				
853	0.003				
854	0.004				
855	0.007				
856	0.003				
857	0.002				
858	0.008				
859	0.003				
860	0.006				
861	0.005				
862	0.011				
863	0.004				
864	0.014				
865	0.01				
866	0.008				
867	0.012				
868	0.02				
869	0.014				
870	0.016				
871	0.022				
872	0.008				
873	0.011				
874	0.012				
875	0.006				
876	0.008				
877	0.008				
878	0.005				
879	0.0				
880	0.004				
881	0.015				
882	0.005				
883	0.01				
884	0.01				
885	0.0				
886	0.0				
887	0.0				
888	0.0				
889	0.0				
890	0.0				
891	0.0				
892	0.0				
893	0.0				
894	0.0				
895	0.0				
896	0.0				
897	0.0				
898	0.0				
899	0.0				
900	0.0				
901	0.0				
902	0.0				
903	0.0				
904	0.0				
905	0.0				
906	0.0				
907	0.0				
908	0.0				
909	0.0				
910	0.0				
911	0.0				
912	0.0				
913	0.0				
914	0.0				
915	0.0				
916	0.0				
917	0.0				
918	0.0				
919	0.0				
920	0.0				
921	0.0				
922	0.0				
923	0.0				
924	0.0				
925	0.0				
926	0.0				
927	0.0				
928	0.0				
929	0.0				
930	0.0				
931	0.0				
932	0.0				
933	0.0				
934	0.0				
935	0.0				
936	0.0				
937	0.518				
938	1.216				
939	2.199				
940	3.64				
941	5.761				
942	8.27				
943	12.168				
944	17.317				
945	23.898				
946	32.712				
947	43.83				
948	55.635				
949	67.782				
950	78.871				
951	87.421				
952	92.988				
953	96.179				
954	97.426				
955	97.574				
956	97.2				
957	96.822				
958	96.71				
959	96.677				
960	96.897				
961	97.333				
962	97.667				
963	98.017				
964	98.276				
965	98.182				
966	98.08				
967	97.668				
968	97.329				
969	96.852				
970	96.546				
971	96.263				
972	96.224				
973	96.25				
974	96.333				
975	96.225				
976	95.643				
977	94.172				
978	91.388				
979	87.401				
980	81.9				
981	74.961				
982	67.078				
983	59.306				
984	50.925				
985	43.325				
986	36.774				
987	30.844				
988	25.88				
989	21.868				
990	18.142				
991	15.229				
992	12.724				
993	10.716				
994	8.947				
995	7.492				
996	6.177				
997	5.043				
998	4.117				
999	3.384				
1000	2.627				
1001	2.052				
1002	1.579				
1003	1.109				
1004	0.76				
1005	0.486				
1006	0.126				
1007	0.0				
1008	0.0				
1009	0.0				
1010	0.0				
1011	0.0				
1012	0.0				
1013	0.0				
1014	0.0				
1015	0.0				
1016	0.0				
1017	0.0				
1018	0.0				
1019	0.0				
1020	0.0				
1021	0.0				
1022	0.0				
1023	0.0				
1024	0.0				
1025	0.0				
1026	0.0				
1027	0.0				
1028	0.0				
1029	0.0				
1030	0.0				
1031	0.0				
1032	0.0				
1033	0.0				
1034	0.0				
1035	0.0				
1036	0.0				
1037	0.0				
1038	0.0				
1039	0.0				
1040	0.0				
1041	0.0				
1042	0.0				
1043	0.0				
1044	0.0				
1045	0.0				
1046	0.0				
1047	0.0				
1048	0.0				
1049	0.0				
1050	0.0				
1051	0.0				
1052	0.0				
1053	0.0				
1054	0.0				
1055	0.0				
1056	0.0				
1057	0.0				
1058	0.0				
1059	0.0				
1060	0.0				
1061	0.0				
1062	0.0				
1063	0.0				
1064	0.0				
1065	0.0				
1066	0.0				
1067	0.0				
1068	0.0				
1069	0.0				
1070	0.0				
1071	0.0				
1072	0.0				
1073	0.0				
1074	0.0				
1075	0.0				
1076	0.0				
1077	0.0				
1078	0.0				
1079	0.0				
1080	0.0				
1081	0.0				
1082	0.0				
1083	0.0				
1084	0.0				
1085	0.0				
1086	0.0				
1087	0.0				
1088	0.0				
1089	0.0				
1090	0.0				
1091	0.0				
1092	0.0				
1093	0.0				
1094	0.0				
1095	0.0				
1096	0.0				
1097	0.0				
1098	0.0				
1099	0.0				
1100	0.0				
