Wavelength	Transmittance	hex_color	Manufacturer	Name	Filter Number
300	0.0		Chroma		ZET473-488/594/NIRm
301	0.0				
302	0.0				
303	0.0				
304	0.0				
305	0.0				
306	0.0				
307	0.0				
308	0.0				
309	0.0				
310	0.0				
311	0.0				
312	0.0				
313	0.0				
314	0.0				
315	0.0				
316	0.0				
317	0.0				
318	0.0				
319	0.0				
320	0.0				
321	0.0				
322	0.0				
323	0.0				
324	0.0				
325	0.0				
326	0.0				
327	0.0				
328	0.0				
329	0.0				
330	0.0				
331	0.0				
332	0.0				
333	0.0				
334	0.0				
335	0.0				
336	0.0				
337	0.0				
338	0.0				
339	0.0				
340	0.0				
341	0.0				
342	0.0				
343	0.0				
344	0.0				
345	0.0				
346	0.0				
347	0.0				
348	0.0				
349	0.0				
350	0.0				
351	0.0				
352	0.0				
353	0.0				
354	0.0				
355	0.0				
356	0.0				
357	0.0				
358	0.0				
359	0.0				
360	0.0				
361	0.0				
362	0.0				
363	0.0				
364	0.0				
365	0.0				
366	0.0				
367	0.0				
368	0.0				
369	0.0				
370	0.0				
371	0.0				
372	0.0				
373	0.0				
374	0.0				
375	0.0				
376	0.0				
377	0.0				
378	0.0				
379	0.0				
380	0.0				
381	0.0				
382	0.0				
383	0.0				
384	0.0				
385	0.0				
386	0.0				
387	0.0				
388	0.0				
389	0.0				
390	0.0				
391	0.0				
392	0.0				
393	0.0				
394	0.0				
395	0.0				
396	0.0				
397	0.0				
398	0.0				
399	0.0				
400	0.0				
401	0.0				
402	0.0				
403	0.0				
404	0.0				
405	0.0				
406	0.0				
407	0.0				
408	0.0				
409	0.0				
410	0.0				
411	0.0				
412	0.0				
413	0.0				
414	0.0				
415	0.0				
416	0.0				
417	0.0				
418	0.0				
419	0.0				
420	0.0				
421	0.0				
422	0.0				
423	0.0				
424	0.0				
425	0.0				
426	0.0				
427	0.0				
428	0.0				
429	0.0				
430	0.0				
431	0.0				
432	0.0				
433	0.0				
434	0.0				
435	0.0				
436	0.0				
437	0.0				
438	0.0				
439	0.0				
440	0.0				
441	0.0				
442	0.0				
443	0.0				
444	0.0				
445	0.0				
446	0.0				
447	0.0				
448	0.0				
449	0.0				
450	0.0				
451	0.0				
452	0.0				
453	0.0				
454	0.0				
455	0.0				
456	0.0				
457	0.0				
458	0.0				
459	0.0				
460	0.0				
461	0.0				
462	0.0				
463	0.0				
464	0.0				
465	0.0				
466	0.0				
467	0.0				
468	0.0				
469	0.0				
470	0.0				
471	0.0				
472	0.0				
473	0.0				
474	0.0				
475	0.0				
476	0.0				
477	0.0				
478	0.0				
479	0.0				
480	0.0				
481	0.0				
482	0.0				
483	0.0				
484	0.0				
485	0.0				
486	0.0				
487	0.0				
488	0.0				
489	0.0				
490	0.0				
491	0.0				
492	0.002				
493	0.035				
494	11.253				
495	71.143				
496	95.04				
497	94.905				
498	96.233				
499	97.021				
500	95.579				
501	95.909				
502	95.587				
503	96.991				
504	94.292				
505	94.343				
506	97.258				
507	97.029				
508	94.967				
509	95.142				
510	96.398				
511	95.722				
512	95.465				
513	96.167				
514	97.164				
515	96.459				
516	95.421				
517	96.544				
518	95.529				
519	94.104				
520	95.892				
521	96.432				
522	95.683				
523	96.258				
524	96.196				
525	96.519				
526	97.256				
527	96.558				
528	96.205				
529	96.057				
530	95.354				
531	94.966				
532	93.248				
533	91.895				
534	95.27				
535	97.55				
536	92.578				
537	90.075				
538	94.408				
539	96.828				
540	94.7				
541	94.344				
542	96.041				
543	97.075				
544	96.8				
545	94.853				
546	93.827				
547	96.062				
548	97.021				
549	94.035				
550	93.395				
551	96.727				
552	97.608				
553	95.719				
554	96.066				
555	96.972				
556	95.784				
557	95.657				
558	97.125				
559	96.776				
560	96.1				
561	97.444				
562	98.193				
563	97.616				
564	97.97				
565	97.719				
566	95.461				
567	94.981				
568	96.701				
569	96.747				
570	95.798				
571	96.774				
572	97.783				
573	97.954				
574	98.133				
575	96.455				
576	95.56				
577	96.868				
578	94.066				
579	94.641				
580	97.237				
581	67.4				
582	9.6				
583	0.462				
584	0.051				
585	0.01				
586	0.003				
587	0.001				
588	0.0				
589	0.0				
590	0.0				
591	0.0				
592	0.0				
593	0.0				
594	0.0				
595	0.0				
596	0.0				
597	0.0				
598	0.0				
599	0.001				
600	0.001				
601	0.003				
602	0.012				
603	0.063				
604	0.549				
605	12.736				
606	70.521				
607	84.056				
608	94.313				
609	93.581				
610	95.021				
611	97.933				
612	97.816				
613	96.628				
614	94.508				
615	93.979				
616	96.832				
617	98.602				
618	96.367				
619	94.554				
620	96.287				
621	98.064				
622	96.695				
623	95.441				
624	97.12				
625	98.72				
626	96.651				
627	93.584				
628	93.914				
629	96.989				
630	98.212				
631	96.221				
632	94.526				
633	95.692				
634	98.152				
635	98.83				
636	97.748				
637	96.956				
638	97.057				
639	97.085				
640	97.03				
641	97.637				
642	98.429				
643	97.429				
644	94.547				
645	92.499				
646	93.546				
647	96.691				
648	98.299				
649	96.617				
650	94.259				
651	94.197				
652	96.392				
653	98.185				
654	97.985				
655	96.94				
656	96.79				
657	97.293				
658	96.921				
659	95.676				
660	94.933				
661	95.642				
662	96.977				
663	97.326				
664	96.739				
665	96.669				
666	97.638				
667	98.61				
668	98.31				
669	97.163				
670	96.668				
671	97.288				
672	97.989				
673	97.774				
674	96.971				
675	96.721				
676	97.018				
677	97.146				
678	96.922				
679	97.11				
680	97.86				
681	98.221				
682	97.395				
683	96.205				
684	96.303				
685	97.606				
686	98.417				
687	97.789				
688	97.12				
689	97.831				
690	98.821				
691	97.937				
692	95.959				
693	95.596				
694	97.109				
695	98.106				
696	97.867				
697	98.236				
698	98.484				
699	96.738				
700	95.759				
701	97.423				
702	96.984				
703	95.695				
704	85.576				
705	58.178				
706	15.233				
707	0.75				
708	0.055				
709	0.007				
710	0.001				
711	0.0				
712	0.0				
713	0.0				
714	0.0				
715	0.0				
716	0.0				
717	0.0				
718	0.0				
719	0.0				
720	0.0				
721	0.0				
722	0.0				
723	0.0				
724	0.0				
725	0.0				
726	0.0				
727	0.0				
728	0.0				
729	0.0				
730	0.0				
731	0.0				
732	0.0				
733	0.0				
734	0.0				
735	0.0				
736	0.0				
737	0.0				
738	0.0				
739	0.0				
740	0.0				
741	0.0				
742	0.0				
743	0.0				
744	0.0				
745	0.0				
746	0.0				
747	0.0				
748	0.0				
749	0.0				
750	0.0				
751	0.0				
752	0.0				
753	0.0				
754	0.0				
755	0.0				
756	0.0				
757	0.0				
758	0.0				
759	0.0				
760	0.0				
761	0.0				
762	0.0				
763	0.0				
764	0.0				
765	0.0				
766	0.0				
767	0.0				
768	0.0				
769	0.0				
770	0.0				
771	0.0				
772	0.0				
773	0.0				
774	0.0				
775	0.0				
776	0.0				
777	0.0				
778	0.0				
779	0.0				
780	0.0				
781	0.0				
782	0.0				
783	0.0				
784	0.0				
785	0.0				
786	0.0				
787	0.0				
788	0.0				
789	0.0				
790	0.0				
791	0.0				
792	0.0				
793	0.0				
794	0.0				
795	0.0				
796	0.0				
797	0.0				
798	0.0				
799	0.0				
800	0.0				
801	0.0				
802	0.0				
803	0.0				
804	0.0				
805	0.0				
806	0.0				
807	0.0				
808	0.0				
809	0.0				
810	0.0				
811	0.0				
812	0.0				
813	0.0				
814	0.0				
815	0.0				
816	0.0				
817	0.0				
818	0.0				
819	0.0				
820	0.0				
821	0.0				
822	0.0				
823	0.0				
824	0.0				
825	0.0				
826	0.0				
827	0.0				
828	0.0				
829	0.0				
830	0.0				
831	0.0				
832	0.0				
833	0.0				
834	0.0				
835	0.0				
836	0.0				
837	0.0				
838	0.0				
839	0.0				
840	0.0				
841	0.0				
842	0.0				
843	0.0				
844	0.0				
845	0.0				
846	0.0				
847	0.0				
848	0.0				
849	0.0				
850	0.0				
851	0.0				
852	0.0				
853	0.0				
854	0.0				
855	0.0				
856	0.0				
857	0.0				
858	0.0				
859	0.0				
860	0.0				
861	0.0				
862	0.0				
863	0.0				
864	0.0				
865	0.0				
866	0.0				
867	0.0				
868	0.0				
869	0.0				
870	0.0				
871	0.0				
872	0.0				
873	0.0				
874	0.0				
875	0.0				
876	0.0				
877	0.0				
878	0.0				
879	0.0				
880	0.0				
881	0.0				
882	0.0				
883	0.0				
884	0.0				
885	0.0				
886	0.0				
887	0.0				
888	0.0				
889	0.0				
890	0.0				
891	0.0				
892	0.0				
893	0.0				
894	0.0				
895	0.0				
896	0.0				
897	0.0				
898	0.0				
899	0.0				
900	0.0				
901	0.0				
902	0.0				
903	0.0				
904	0.0				
905	0.0				
906	0.0				
907	0.0				
908	0.0				
909	0.0				
910	0.0				
911	0.0				
912	0.0				
913	0.0				
914	0.0				
915	0.0				
916	0.0				
917	0.0				
918	0.0				
919	0.0				
920	0.0				
921	0.0				
922	0.0				
923	0.0				
924	0.0				
925	0.0				
926	0.0				
927	0.0				
928	0.0				
929	0.0				
930	0.0				
931	0.0				
932	0.0				
933	0.0				
934	0.0				
935	0.0				
936	0.0				
937	0.0				
938	0.0				
939	0.0				
940	0.0				
941	0.0				
942	0.0				
943	0.0				
944	0.0				
945	0.0				
946	0.0				
947	0.0				
948	0.0				
949	0.0				
950	0.0				
951	0.0				
952	0.0				
953	0.0				
954	0.0				
955	0.0				
956	0.0				
957	0.0				
958	0.0				
959	0.0				
960	0.0				
961	0.0				
962	0.0				
963	0.0				
964	0.0				
965	0.0				
966	0.0				
967	0.0				
968	0.0				
969	0.0				
970	0.0				
971	0.0				
972	0.0				
973	0.0				
974	0.0				
975	0.0				
976	0.0				
977	0.0				
978	0.0				
979	0.0				
980	0.0				
981	0.0				
982	0.0				
983	0.0				
984	0.0				
985	0.0				
986	0.0				
987	0.0				
988	0.0				
989	0.0				
990	0.0				
991	0.0				
992	0.0				
993	0.0				
994	0.0				
995	0.0				
996	0.0				
997	0.0				
998	0.0				
999	0.0				
1000	0.0				
1001	0.0				
1002	0.0				
1003	0.0				
1004	0.0				
1005	0.0				
1006	0.0				
1007	0.0				
1008	0.0				
1009	0.0				
1010	0.0				
1011	0.0				
1012	0.0				
1013	0.0				
1014	0.0				
1015	0.0				
1016	0.0				
1017	0.0				
1018	0.0				
1019	0.0				
1020	0.0				
1021	0.0				
1022	0.0				
1023	0.0				
1024	0.0				
1025	0.0				
1026	0.0				
1027	0.0				
1028	0.0				
1029	0.0				
1030	0.0				
1031	0.0				
1032	0.0				
1033	0.0				
1034	0.0				
1035	0.0				
1036	0.0				
1037	0.0				
1038	0.0				
1039	0.0				
1040	0.0				
1041	0.0				
1042	0.0				
1043	0.0				
1044	0.0				
1045	0.0				
1046	0.0				
1047	0.0				
1048	0.0				
1049	0.0				
1050	0.0				
1051	0.0				
1052	0.0				
1053	0.0				
1054	0.0				
1055	0.0				
1056	0.0				
1057	0.0				
1058	0.0				
1059	0.0				
1060	0.0				
1061	0.0				
1062	0.0				
1063	0.0				
1064	0.0				
1065	0.0				
1066	0.0				
1067	0.0				
1068	0.0				
1069	0.0				
1070	0.0				
1071	0.0				
1072	0.0				
1073	0.0				
1074	0.0				
1075	0.0				
1076	0.0				
1077	0.0				
1078	0.0				
1079	0.0				
1080	0.0				
1081	0.0				
1082	0.0				
1083	0.0				
1084	0.0				
1085	0.0				
1086	0.0				
1087	0.0				
1088	0.0				
1089	0.0				
1090	0.0				
1091	0.0				
1092	0.0				
1093	0.0				
1094	0.0				
1095	0.0				
1096	0.0				
1097	0.0				
1098	0.0				
1099	0.0				
1100	0.0				
