Wavelength	Transmittance	hex_color	Manufacturer	Name	Filter Number
350	0.003		Chroma		RET488/4x
351	0.003				
352	0.006				
353	0.005				
354	0.002				
355	0.0				
356	0.0				
357	0.001				
358	0.001				
359	0.003				
360	0.011				
361	0.119				
362	0.286				
363	0.016				
364	0.002				
365	0.0				
366	0.0				
367	0.0				
368	0.0				
369	0.0				
370	0.0				
371	0.0				
372	0.0				
373	0.0				
374	0.0				
375	0.0				
376	0.0				
377	0.0				
378	0.0				
379	0.0				
380	0.0				
381	0.0				
382	0.0				
383	0.0				
384	0.0				
385	0.0				
386	0.0				
387	0.0				
388	0.0				
389	0.0				
390	0.0				
391	0.0				
392	0.0				
393	0.0				
394	0.0				
395	0.0				
396	0.0				
397	0.0				
398	0.0				
399	0.0				
400	0.0				
401	0.0				
402	0.0				
403	0.0				
404	0.0				
405	0.0				
406	0.0				
407	0.0				
408	0.0				
409	0.0				
410	0.0				
411	0.0				
412	0.0				
413	0.0				
414	0.0				
415	0.0				
416	0.0				
417	0.0				
418	0.0				
419	0.0				
420	0.0				
421	0.0				
422	0.0				
423	0.0				
424	0.0				
425	0.0				
426	0.0				
427	0.0				
428	0.0				
429	0.0				
430	0.0				
431	0.0				
432	0.0				
433	0.0				
434	0.0				
435	0.0				
436	0.0				
437	0.0				
438	0.0				
439	0.0				
440	0.0				
441	0.0				
442	0.0				
443	0.0				
444	0.0				
445	0.0				
446	0.0				
447	0.0				
448	0.0				
449	0.0				
450	0.0				
451	0.0				
452	0.0				
453	0.0				
454	0.0				
455	0.0				
456	0.0				
457	0.0				
458	0.0				
459	0.0				
460	0.0				
461	0.0				
462	0.0				
463	0.0				
464	0.0				
465	0.0				
466	0.0				
467	0.0				
468	0.0				
469	0.0				
470	0.0				
471	0.0				
472	0.0				
473	0.0				
474	0.0				
475	0.0				
476	0.0				
477	0.0				
478	0.0				
479	0.0				
480	0.0				
481	0.0				
482	0.0				
483	0.022				
484	4.46				
485	72.0				
486	98.2				
487	99.3				
488	96.4				
489	26.0				
490	0.117				
491	0.009				
492	0.0				
493	0.0				
494	0.0				
495	0.0				
496	0.0				
497	0.0				
498	0.0				
499	0.0				
500	0.0				
501	0.0				
502	0.0				
503	0.0				
504	0.0				
505	0.0				
506	0.0				
507	0.0				
508	0.0				
509	0.0				
510	0.0				
511	0.0				
512	0.0				
513	0.0				
514	0.0				
515	0.0				
516	0.0				
517	0.0				
518	0.0				
519	0.0				
520	0.0				
521	0.0				
522	0.0				
523	0.0				
524	0.0				
525	0.0				
526	0.0				
527	0.0				
528	0.0				
529	0.0				
530	0.0				
531	0.0				
532	0.0				
533	0.0				
534	0.0				
535	0.0				
536	0.0				
537	0.0				
538	0.0				
539	0.0				
540	0.0				
541	0.0				
542	0.0				
543	0.0				
544	0.0				
545	0.0				
546	0.0				
547	0.0				
548	0.0				
549	0.0				
550	0.0				
551	0.0				
552	0.0				
553	0.0				
554	0.0				
555	0.0				
556	0.0				
557	0.0				
558	0.0				
559	0.0				
560	0.0				
561	0.0				
562	0.0				
563	0.0				
564	0.0				
565	0.0				
566	0.0				
567	0.0				
568	0.0				
569	0.0				
570	0.0				
571	0.0				
572	0.0				
573	0.0				
574	0.0				
575	0.0				
576	0.0				
577	0.0				
578	0.0				
579	0.0				
580	0.0				
581	0.0				
582	0.0				
583	0.0				
584	0.0				
585	0.0				
586	0.0				
587	0.0				
588	0.0				
589	0.0				
590	0.0				
591	0.0				
592	0.0				
593	0.0				
594	0.0				
595	0.0				
596	0.0				
597	0.0				
598	0.0				
599	0.0				
600	0.0				
601	0.0				
602	0.0				
603	0.0				
604	0.0				
605	0.0				
606	0.0				
607	0.0				
608	0.0				
609	0.0				
610	0.0				
611	0.0				
612	0.0				
613	0.0				
614	0.0				
615	0.0				
616	0.0				
617	0.0				
618	0.0				
619	0.0				
620	0.0				
621	0.0				
622	0.0				
623	0.0				
624	0.0				
625	0.0				
626	0.0				
627	0.0				
628	0.0				
629	0.0				
630	0.0				
631	0.0				
632	0.0				
633	0.0				
634	0.0				
635	0.0				
636	0.0				
637	0.0				
638	0.0				
639	0.0				
640	0.0				
641	0.0				
642	0.0				
643	0.0				
644	0.0				
645	0.0				
646	0.0				
647	0.0				
648	0.0				
649	0.0				
650	0.0				
651	0.0				
652	0.0				
653	0.0				
654	0.0				
655	0.0				
656	0.0				
657	0.0				
658	0.0				
659	0.0				
660	0.0				
661	0.0				
662	0.0				
663	0.0				
664	0.0				
665	0.0				
666	0.0				
667	0.0				
668	0.0				
669	0.0				
670	0.0				
671	0.0				
672	0.0				
673	0.0				
674	0.0				
675	0.0				
676	0.0				
677	0.0				
678	0.0				
679	0.0				
680	0.0				
681	0.0				
682	0.0				
683	0.0				
684	0.0				
685	0.0				
686	0.0				
687	0.0				
688	0.0				
689	0.0				
690	0.0				
691	0.0				
692	0.0				
693	0.0				
694	0.0				
695	0.0				
696	0.0				
697	0.0				
698	0.0				
699	0.0				
700	0.0				
701	0.0				
702	0.0				
703	0.001				
704	0.001				
705	0.0				
706	0.0				
707	0.0				
708	0.0				
709	0.0				
710	0.0				
711	0.0				
712	0.0				
713	0.0				
714	0.0				
715	0.0				
716	0.0				
717	0.0				
718	0.0				
719	0.0				
720	0.0				
721	0.0				
722	0.0				
723	0.0				
724	0.0				
725	0.0				
726	0.001				
727	0.001				
728	0.002				
729	0.001				
730	0.001				
731	0.0				
732	0.0				
733	0.0				
734	0.0				
735	0.0				
736	0.0				
737	0.0				
738	0.0				
739	0.0				
740	0.0				
741	0.0				
742	0.0				
743	0.0				
744	0.0				
745	0.0				
746	0.0				
747	0.0				
748	0.0				
749	0.0				
750	0.0				
751	0.0				
752	0.0				
753	0.0				
754	0.0				
755	0.0				
756	0.0				
757	0.001				
758	0.001				
759	0.001				
760	0.002				
761	0.002				
762	0.003				
763	0.005				
764	0.004				
765	0.003				
766	0.003				
767	0.003				
768	0.002				
769	0.002				
770	0.001				
771	0.001				
772	0.001				
773	0.001				
774	0.001				
775	0.001				
776	0.001				
777	0.001				
778	0.001				
779	0.001				
780	0.001				
781	0.001				
782	0.001				
783	0.001				
784	0.001				
785	0.001				
786	0.001				
787	0.001				
788	0.002				
789	0.002				
790	0.002				
791	0.002				
792	0.003				
793	0.003				
794	0.004				
795	0.005				
796	0.006				
797	0.008				
798	0.01				
799	0.013				
800	0.016				
801	0.022				
802	0.029				
803	0.042				
804	0.055				
805	0.065				
806	0.071				
807	0.079				
808	0.073				
809	0.068				
810	0.061				
811	0.052				
812	0.051				
813	0.048				
814	0.045				
815	0.039				
816	0.035				
817	0.042				
818	0.043				
819	0.041				
820	0.046				
821	0.045				
822	0.049				
823	0.06				
824	0.064				
825	0.071				
826	0.08				
827	0.095				
828	0.109				
829	0.113				
830	0.148				
831	0.176				
832	0.216				
833	0.274				
834	0.331				
835	0.416				
836	0.563				
837	0.721				
838	0.971				
839	1.35				
840	1.87				
841	2.6				
842	3.75				
843	5.18				
844	7.18				
845	9.86				
846	12.2				
847	15.4				
848	18.4				
849	21.9				
850	27.2				
851	31.8				
852	36.9				
853	42.2				
854	46.9				
855	49.7				
856	49.4				
857	46.5				
858	41.5				
859	35.9				
860	30.6				
861	26.0				
862	22.0				
863	18.8				
864	16.2				
865	14.2				
866	12.5				
867	11.1				
868	9.85				
869	8.79				
870	7.81				
871	6.97				
872	6.21				
873	5.54				
874	4.97				
875	4.49				
876	4.05				
877	3.67				
878	3.36				
879	3.11				
880	2.91				
881	2.77				
882	2.68				
883	2.65				
884	2.65				
885	2.71				
886	2.83				
887	3.0				
888	3.2				
889	3.47				
890	3.78				
891	4.17				
892	4.64				
893	5.24				
894	5.99				
895	6.99				
896	8.26				
897	9.82				
898	11.7				
899	14.1				
900					
