Wavelength	Transmittance	hex_color	Manufacturer	Name	Filter Number
300	0.0		Chroma		59012m
301	0.0				
302	0.0				
303	0.0				
304	0.0				
305	0.0				
306	0.0				
307	0.0				
308	0.0				
309	0.0				
310	0.0				
311	0.0				
312	0.0				
313	0.0				
314	0.0				
315	0.0				
316	0.0				
317	0.0				
318	0.0				
319	0.0				
320	0.0				
321	0.0				
322	0.0				
323	0.0				
324	0.0				
325	0.0				
326	0.0				
327	0.0				
328	0.0				
329	0.0				
330	0.0				
331	0.0				
332	0.0				
333	0.0				
334	0.0				
335	0.0				
336	0.0				
337	0.0				
338	0.0				
339	0.0				
340	0.0				
341	0.0				
342	0.0				
343	0.0				
344	0.0				
345	0.0				
346	0.0				
347	0.0				
348	0.0				
349	0.0				
350	0.0				
351	0.0				
352	0.0				
353	0.0				
354	0.0				
355	0.0				
356	0.0				
357	0.0				
358	0.0				
359	0.0				
360	0.0				
361	0.0				
362	0.0				
363	0.0				
364	0.0				
365	0.0				
366	0.0				
367	0.0				
368	0.0				
369	0.0				
370	0.0				
371	0.0				
372	0.0				
373	0.0				
374	0.0				
375	0.0				
376	0.0				
377	0.0				
378	0.0				
379	0.0				
380	0.0				
381	0.0				
382	0.0				
383	0.0				
384	0.0				
385	0.0				
386	0.0				
387	0.0				
388	0.0				
389	0.0				
390	0.0				
391	0.0				
392	0.0				
393	0.0				
394	0.0				
395	0.0				
396	0.0				
397	0.0				
398	0.0				
399	0.0				
400	0.0				
401	0.0				
402	0.0				
403	0.0				
404	0.0				
405	0.0				
406	0.0				
407	0.0				
408	0.0				
409	0.0				
410	0.0				
411	0.0				
412	0.0				
413	0.0				
414	0.0				
415	0.0				
416	0.0				
417	0.0				
418	0.0				
419	0.0				
420	0.0				
421	0.0				
422	0.0				
423	0.0				
424	0.0				
425	0.0				
426	0.0				
427	0.0				
428	0.0				
429	0.0				
430	0.0				
431	0.0				
432	0.0				
433	0.0				
434	0.0				
435	0.0				
436	0.0				
437	0.0				
438	0.0				
439	0.0				
440	0.0				
441	0.0				
442	0.0				
443	0.0				
444	0.0				
445	0.0				
446	0.0				
447	0.0				
448	0.0				
449	0.0				
450	0.0				
451	0.0				
452	0.0				
453	0.0				
454	0.0				
455	0.0				
456	0.0				
457	0.0				
458	0.0				
459	0.0				
460	0.0				
461	0.0				
462	0.0				
463	0.0				
464	0.0				
465	0.0				
466	0.0				
467	0.0				
468	0.0				
469	0.0				
470	0.0				
471	0.0				
472	0.0				
473	0.0				
474	0.0				
475	0.0				
476	0.0				
477	0.0				
478	0.0				
479	0.0				
480	0.0				
481	0.0				
482	0.0				
483	0.0				
484	0.0				
485	0.0				
486	0.0				
487	0.0				
488	0.0				
489	0.0				
490	0.0				
491	0.0				
492	0.0				
493	0.0				
494	0.0				
495	0.0				
496	0.0				
497	0.002				
498	0.023				
499	0.726				
500	33.896				
501	90.952				
502	95.138				
503	95.66				
504	95.141				
505	95.724				
506	95.784				
507	95.803				
508	94.831				
509	95.711				
510	95.565				
511	94.75				
512	95.312				
513	95.541				
514	96.013				
515	96.779				
516	96.693				
517	96.771				
518	96.237				
519	95.737				
520	96.384				
521	96.322				
522	96.832				
523	96.564				
524	96.589				
525	95.488				
526	94.165				
527	96.517				
528	96.755				
529	35.629				
530	3.197				
531	0.144				
532	0.011				
533	0.001				
534	0.0				
535	0.0				
536	0.0				
537	0.0				
538	0.0				
539	0.0				
540	0.0				
541	0.0				
542	0.0				
543	0.0				
544	0.0				
545	0.0				
546	0.0				
547	0.0				
548	0.0				
549	0.0				
550	0.0				
551	0.0				
552	0.0				
553	0.0				
554	0.0				
555	0.0				
556	0.0				
557	0.0				
558	0.0				
559	0.0				
560	0.0				
561	0.0				
562	0.0				
563	0.0				
564	0.0				
565	0.0				
566	0.0				
567	0.0				
568	0.0				
569	0.0				
570	0.001				
571	0.012				
572	0.211				
573	12.918				
574	78.901				
575	95.473				
576	95.291				
577	96.641				
578	93.354				
579	94.134				
580	95.542				
581	95.63				
582	97.681				
583	97.722				
584	96.74				
585	97.21				
586	98.054				
587	97.306				
588	96.227				
589	96.9				
590	97.601				
591	97.503				
592	97.428				
593	97.694				
594	97.227				
595	96.237				
596	96.077				
597	97.277				
598	98.411				
599	98.646				
600	98.677				
601	98.191				
602	97.443				
603	96.716				
604	96.786				
605	97.085				
606	98.031				
607	98.692				
608	98.246				
609	96.882				
610	96.093				
611	96.654				
612	97.651				
613	98.264				
614	98.608				
615	98.428				
616	98.071				
617	98.256				
618	97.134				
619	37.572				
620	3.263				
621	0.867				
622	0.109				
623	0.02				
624	0.005				
625	0.001				
626	0.0				
627	0.0				
628	0.0				
629	0.0				
630	0.0				
631	0.0				
632	0.0				
633	0.0				
634	0.0				
635	0.0				
636	0.0				
637	0.0				
638	0.0				
639	0.0				
640	0.0				
641	0.0				
642	0.0				
643	0.0				
644	0.0				
645	0.0				
646	0.0				
647	0.0				
648	0.001				
649	0.005				
650	0.01				
651	0.008				
652	0.009				
653	0.008				
654	0.004				
655	0.002				
656	0.001				
657	0.001				
658	0.001				
659	0.002				
660	0.003				
661	0.006				
662	0.009				
663	0.009				
664	0.008				
665	0.008				
666	0.008				
667	0.008				
668	0.007				
669	0.005				
670	0.004				
671	0.004				
672	0.005				
673	0.006				
674	0.007				
675	0.007				
676	0.006				
677	0.004				
678	0.003				
679	0.003				
680	0.002				
681	0.001				
682	0.001				
683	0.001				
684	0.001				
685	0.001				
686	0.001				
687	0.001				
688	0.001				
689	0.002				
690	0.003				
691	0.004				
692	0.005				
693	0.005				
694	0.006				
695	0.007				
696	0.008				
697	0.006				
698	0.004				
699	0.002				
700	0.002				
701	0.001				
702	0.001				
703	0.001				
704	0.001				
705	0.001				
706	0.002				
707	0.002				
708	0.003				
709	0.004				
710	0.006				
711	0.008				
712	0.009				
713	0.01				
714	0.01				
715	0.009				
716	0.009				
717	0.009				
718	0.008				
719	0.007				
720	0.006				
721	0.005				
722	0.004				
723	0.003				
724	0.003				
725	0.003				
726	0.003				
727	0.003				
728	0.003				
729	0.004				
730	0.005				
731	0.006				
732	0.007				
733	0.009				
734	0.011				
735	0.013				
736	0.013				
737	0.008				
738	0.004				
739	0.002				
740	0.001				
741	0.001				
742	0.001				
743	0.001				
744	0.001				
745	0.001				
746	0.001				
747	0.001				
748	0.001				
749	0.0				
750	0.0				
751	0.0				
752	0.0				
753	0.0				
754	0.0				
755	0.0				
756	0.001				
757	0.001				
758	0.002				
759	0.004				
760	0.007				
761	0.005				
762	0.002				
763	0.001				
764	0.001				
765	0.001				
766	0.001				
767	0.001				
768	0.001				
769	0.001				
770	0.003				
771	0.005				
772	0.009				
773	0.009				
774	0.006				
775	0.003				
776	0.002				
777	0.002				
778	0.002				
779	0.002				
780	0.003				
781	0.003				
782	0.004				
783	0.005				
784	0.004				
785	0.004				
786	0.004				
787	0.003				
788	0.003				
789	0.004				
790	0.005				
791	0.006				
792	0.008				
793	0.01				
794	0.01				
795	0.008				
796	0.007				
797	0.006				
798	0.005				
799	0.005				
800	0.007				
801	0.007				
802	0.008				
803	0.008				
804	0.008				
805	0.008				
806	0.008				
807	0.008				
808	0.008				
809	0.008				
810	0.008				
811	0.008				
812	0.008				
813	0.008				
814	0.008				
815	0.009				
816	0.009				
817	0.009				
818	0.009				
819	0.009				
820	0.009				
821	0.009				
822	0.008				
823	0.008				
824	0.008				
825	0.007				
826	0.007				
827	0.006				
828	0.006				
829	0.006				
830	0.005				
831	0.005				
832	0.006				
833	0.006				
834	0.006				
835	0.006				
836	0.007				
837	0.007				
838	0.008				
839	0.008				
840	0.008				
841	0.008				
842	0.008				
843	0.008				
844	0.008				
845	0.007				
846	0.007				
847	0.006				
848	0.006				
849	0.005				
850	0.004				
851	0.004				
852	0.003				
853	0.003				
854	0.002				
855	0.002				
856	0.002				
857	0.002				
858	0.003				
859	0.003				
860	0.004				
861	0.004				
862	0.005				
863	0.005				
864	0.005				
865	0.006				
866	0.006				
867	0.006				
868	0.006				
869	0.006				
870	0.006				
871	0.006				
872	0.006				
873	0.007				
874	0.007				
875	0.007				
876	0.007				
877	0.007				
878	0.008				
879	0.008				
880	0.008				
881	0.008				
882	0.008				
883	0.008				
884	0.008				
885	0.008				
886	0.008				
887	0.008				
888	0.008				
889	0.008				
890	0.008				
891	0.008				
892	0.007				
893	0.007				
894	0.006				
895	0.005				
896	0.004				
897	0.003				
898	0.002				
899	0.002				
900	0.001				
901	0.001				
902	0.001				
903	0.0				
904	0.0				
905	0.0				
906	0.0				
907	0.0				
908	0.0				
909	0.0				
910	0.0				
911	0.0				
912	0.0				
913	0.0				
914	0.0				
915	0.0				
916	0.0				
917	0.0				
918	0.0				
919	0.0				
920	0.0				
921	0.0				
922	0.0				
923	0.0				
924	0.0				
925	0.0				
926	0.0				
927	0.001				
928	0.001				
929	0.002				
930	0.003				
931	0.005				
932	0.009				
933	0.026				
934	0.197				
935	0.556				
936	0.934				
937	1.315				
938	1.415				
939	1.1				
940	0.712				
941	0.339				
942	0.168				
943	0.254				
944	0.629				
945	1.083				
946	1.496				
947	1.625				
948	1.216				
949	0.73				
950	0.255				
951	0.056				
952	0.026				
953	0.015				
954	0.01				
955	0.007				
956	0.006				
957	0.005				
958	0.004				
959	0.003				
960	0.003				
961	0.003				
962	0.003				
963	0.003				
964	0.003				
965	0.003				
966	0.003				
967	0.003				
968	0.003				
969	0.004				
970	0.004				
971	0.005				
972	0.006				
973	0.008				
974	0.01				
975	0.013				
976	0.018				
977	0.025				
978	0.036				
979	0.056				
980	0.087				
981	0.143				
982	0.259				
983	0.521				
984	1.274				
985	4.371				
986	25.339				
987	34.547				
988	14.718				
989	6.238				
990	4.083				
991	3.442				
992	3.397				
993	3.746				
994	4.509				
995	5.886				
996	8.149				
997	11.992				
998	18.231				
999	27.196				
1000	35.802				
