Wavelength	Transmittance	hex_color	Manufacturer	Name	Filter Number
300	0.0		Chroma		mv660200
301	0.0				
302	0.0				
303	0.0				
304	0.0				
305	0.0				
306	0.0				
307	0.0				
308	0.0				
309	0.0				
310	0.0				
311	0.0				
312	0.0				
313	0.0				
314	0.0				
315	0.0				
316	0.0				
317	0.0				
318	0.0				
319	0.0				
320	0.0				
321	0.0				
322	0.0				
323	0.0				
324	0.0				
325	0.0				
326	0.0				
327	0.0				
328	0.0				
329	0.0				
330	0.0				
331	0.0				
332	0.0				
333	0.0				
334	0.0				
335	0.0				
336	0.0				
337	0.0				
338	0.0				
339	0.0				
340	0.0				
341	0.0				
342	0.0				
343	0.0				
344	0.0				
345	0.0				
346	0.0				
347	0.0				
348	0.0				
349	0.001				
350	0.001				
351	0.001				
352	0.0				
353	0.0				
354	0.0				
355	0.0				
356	0.002				
357	0.005				
358	0.005				
359	0.002				
360	0.001				
361	0.0				
362	0.0				
363	0.001				
364	0.006				
365	0.014				
366	0.011				
367	0.005				
368	0.003				
369	0.0				
370	0.0				
371	0.001				
372	0.001				
373	0.001				
374	0.002				
375	0.016				
376	0.022				
377	0.01				
378	0.002				
379	0.0				
380	0.0				
381	0.0				
382	0.0				
383	0.0				
384	0.002				
385	0.002				
386	0.0				
387	0.0				
388	0.002				
389	0.019				
390	0.021				
391	0.005				
392	0.005				
393	0.018				
394	0.023				
395	0.01				
396	0.001				
397	0.001				
398	0.001				
399	0.0				
400	0.0				
401	0.0				
402	0.001				
403	0.003				
404	0.005				
405	0.006				
406	0.004				
407	0.001				
408	0.0				
409	0.0				
410	0.001				
411	0.004				
412	0.005				
413	0.002				
414	0.001				
415	0.001				
416	0.001				
417	0.006				
418	0.019				
419	0.015				
420	0.002				
421	0.0				
422	0.001				
423	0.002				
424	0.006				
425	0.017				
426	0.036				
427	0.047				
428	0.046				
429	0.052				
430	0.061				
431	0.053				
432	0.047				
433	0.066				
434	0.081				
435	0.063				
436	0.046				
437	0.049				
438	0.055				
439	0.059				
440	0.081				
441	0.106				
442	0.084				
443	0.043				
444	0.028				
445	0.03				
446	0.036				
447	0.041				
448	0.046				
449	0.058				
450	0.066				
451	0.06				
452	0.056				
453	0.081				
454	0.116				
455	0.103				
456	0.058				
457	0.039				
458	0.046				
459	0.071				
460	0.093				
461	0.094				
462	0.094				
463	0.112				
464	0.12				
465	0.1				
466	0.077				
467	0.076				
468	0.092				
469	0.105				
470	0.101				
471	0.099				
472	0.118				
473	0.137				
474	0.117				
475	0.076				
476	0.055				
477	0.057				
478	0.078				
479	0.103				
480	0.105				
481	0.088				
482	0.081				
483	0.094				
484	0.118				
485	0.127				
486	0.113				
487	0.095				
488	0.084				
489	0.075				
490	0.063				
491	0.051				
492	0.044				
493	0.044				
494	0.049				
495	0.056				
496	0.063				
497	0.067				
498	0.074				
499	0.088				
500	0.106				
501	0.111				
502	0.093				
503	0.067				
504	0.049				
505	0.039				
506	0.033				
507	0.031				
508	0.031				
509	0.035				
510	0.042				
511	0.054				
512	0.066				
513	0.071				
514	0.069				
515	0.065				
516	0.067				
517	0.072				
518	0.078				
519	0.082				
520	0.083				
521	0.087				
522	0.092				
523	0.092				
524	0.078				
525	0.058				
526	0.043				
527	0.035				
528	0.035				
529	0.041				
530	0.052				
531	0.064				
532	0.069				
533	0.065				
534	0.06				
535	0.062				
536	0.073				
537	0.089				
538	0.097				
539	0.087				
540	0.071				
541	0.061				
542	0.058				
543	0.059				
544	0.059				
545	0.055				
546	0.05				
547	0.047				
548	0.05				
549	0.064				
550	0.089				
551	0.112				
552	0.112				
553	0.093				
554	0.077				
555	0.075				
556	0.084				
557	0.089				
558	0.075				
559	0.05				
560	0.033				
561	0.026				
562	0.026				
563	0.033				
564	0.042				
565	0.037				
566	0.02				
567	0.008				
568	0.004				
569	0.002				
570	0.001				
571	0.001				
572	0.001				
573	0.0				
574	0.0				
575	0.0				
576	0.0				
577	0.0				
578	0.0				
579	0.0				
580	0.001				
581	0.001				
582	0.001				
583	0.001				
584	0.0				
585	0.0				
586	0.0				
587	0.0				
588	0.0				
589	0.0				
590	0.0				
591	0.0				
592	0.0				
593	0.0				
594	0.0				
595	0.0				
596	0.0				
597	0.0				
598	0.0				
599	0.0				
600	0.0				
601	0.0				
602	0.0				
603	0.0				
604	0.0				
605	0.0				
606	0.0				
607	0.0				
608	0.0				
609	0.0				
610	0.0				
611	0.0				
612	0.0				
613	0.0				
614	0.0				
615	0.0				
616	0.0				
617	0.0				
618	0.0				
619	0.0				
620	0.0				
621	0.0				
622	0.0				
623	0.0				
624	0.0				
625	0.0				
626	0.001				
627	0.001				
628	0.001				
629	0.003				
630	0.006				
631	0.014				
632	0.033				
633	0.051				
634	0.051				
635	0.04				
636	0.033				
637	0.032				
638	0.037				
639	0.048				
640	0.072				
641	0.119				
642	0.225				
643	0.487				
644	1.228				
645	3.699				
646	12.654				
647	36.559				
648	70.177				
649	91.512				
650	96.483				
651	97.572				
652	98.476				
653	98.901				
654	98.725				
655	97.918				
656	97.54				
657	97.29				
658	97.616				
659	98.457				
660	98.68				
661	99.054				
662	98.699				
663	96.4				
664	91.695				
665	85.05				
666	67.135				
667	40.352				
668	16.44				
669	3.811				
670	1.617				
671	0.573				
672	0.239				
673	0.114				
674	0.06				
675	0.034				
676	0.021				
677	0.014				
678	0.01				
679	0.007				
680	0.006				
681	0.005				
682	0.004				
683	0.004				
684	0.003				
685	0.003				
686	0.003				
687	0.002				
688	0.002				
689	0.002				
690	0.002				
691	0.001				
692	0.001				
693	0.001				
694	0.001				
695	0.001				
696	0.001				
697	0.001				
698	0.0				
699	0.0				
700	0.0				
701	0.0				
702	0.0				
703	0.0				
704	0.0				
705	0.0				
706	0.0				
707	0.0				
708	0.0				
709	0.0				
710	0.0				
711	0.0				
712	0.0				
713	0.0				
714	0.0				
715	0.0				
716	0.0				
717	0.0				
718	0.0				
719	0.0				
720	0.0				
721	0.0				
722	0.0				
723	0.0				
724	0.0				
725	0.0				
726	0.0				
727	0.0				
728	0.0				
729	0.0				
730	0.0				
731	0.0				
732	0.0				
733	0.0				
734	0.0				
735	0.0				
736	0.0				
737	0.0				
738	0.0				
739	0.001				
740	0.001				
741	0.001				
742	0.001				
743	0.0				
744	0.0				
745	0.0				
746	0.0				
747	0.0				
748	0.0				
749	0.0				
750	0.0				
751	0.001				
752	0.001				
753	0.001				
754	0.001				
755	0.001				
756	0.001				
757	0.001				
758	0.001				
759	0.001				
760	0.0				
761	0.0				
762	0.0				
763	0.0				
764	0.0				
765	0.0				
766	0.0				
767	0.0				
768	0.0				
769	0.0				
770	0.0				
771	0.0				
772	0.0				
773	0.001				
774	0.001				
775	0.001				
776	0.001				
777	0.002				
778	0.004				
779	0.006				
780	0.012				
781	0.027				
782	0.071				
783	0.174				
784	0.283				
785	0.275				
786	0.193				
787	0.137				
788	0.114				
789	0.106				
790	0.102				
791	0.098				
792	0.092				
793	0.085				
794	0.076				
795	0.066				
796	0.059				
797	0.053				
798	0.049				
799	0.047				
800	0.04				
801	0.037				
802	0.033				
803	0.03				
804	0.028				
805	0.025				
806	0.024				
807	0.022				
808	0.021				
809	0.021				
810	0.021				
811	0.023				
812	0.025				
813	0.028				
814	0.032				
815	0.037				
816	0.043				
817	0.049				
818	0.055				
819	0.061				
820	0.068				
821	0.074				
822	0.08				
823	0.086				
824	0.091				
825	0.095				
826	0.098				
827	0.099				
828	0.099				
829	0.099				
830	0.098				
831	0.097				
832	0.094				
833	0.092				
834	0.089				
835	0.085				
836	0.082				
837	0.078				
838	0.074				
839	0.069				
840	0.064				
841	0.059				
842	0.053				
843	0.048				
844	0.044				
845	0.04				
846	0.037				
847	0.035				
848	0.034				
849	0.034				
850	0.035				
851	0.036				
852	0.039				
853	0.041				
854	0.045				
855	0.048				
856	0.051				
857	0.054				
858	0.057				
859	0.06				
860	0.062				
861	0.064				
862	0.065				
863	0.066				
864	0.067				
865	0.067				
866	0.067				
867	0.067				
868	0.067				
869	0.067				
870	0.067				
871	0.067				
872	0.067				
873	0.067				
874	0.067				
875	0.067				
876	0.067				
877	0.067				
878	0.066				
879	0.065				
880	0.064				
881	0.063				
882	0.062				
883	0.061				
884	0.061				
885	0.06				
886	0.06				
887	0.06				
888	0.061				
889	0.062				
890	0.064				
891	0.065				
892	0.068				
893	0.07				
894	0.073				
895	0.075				
896	0.077				
897	0.08				
898	0.082				
899	0.083				
900	0.084				
901	0.085				
902	0.086				
903	0.086				
904	0.086				
905	0.086				
906	0.086				
907	0.086				
908	0.086				
909	0.087				
910	0.087				
911	0.087				
912	0.087				
913	0.086				
914	0.085				
915	0.083				
916	0.082				
917	0.079				
918	0.076				
919	0.073				
920	0.069				
921	0.066				
922	0.063				
923	0.06				
924	0.057				
925	0.055				
926	0.054				
927	0.053				
928	0.053				
929	0.053				
930	0.054				
931	0.056				
932	0.057				
933	0.06				
934	0.062				
935	0.065				
936	0.068				
937	0.07				
938	0.072				
939	0.074				
940	0.075				
941	0.075				
942	0.075				
943	0.074				
944	0.072				
945	0.071				
946	0.069				
947	0.067				
948	0.065				
949	0.064				
950	0.063				
951	0.063				
952	0.063				
953	0.064				
954	0.066				
955	0.068				
956	0.071				
957	0.075				
958	0.079				
959	0.084				
960	0.088				
961	0.093				
962	0.097				
963	0.1				
964	0.102				
965	0.102				
966	0.102				
967	0.099				
968	0.096				
969	0.093				
970	0.088				
971	0.084				
972	0.08				
973	0.076				
974	0.073				
975	0.071				
976	0.069				
977	0.068				
978	0.067				
979	0.067				
980	0.068				
981	0.07				
982	0.072				
983	0.074				
984	0.076				
985	0.08				
986	0.082				
987	0.085				
988	0.088				
989	0.09				
990	0.092				
991	0.092				
992	0.091				
993	0.09				
994	0.088				
995	0.085				
996	0.082				
997	0.079				
998	0.076				
999	0.073				
1000	0.07				
1001	0.067				
1002	0.065				
1003	0.064				
1004	0.063				
1005	0.062				
1006	0.062				
1007	0.062				
1008	0.063				
1009	0.064				
1010	0.066				
1011	0.068				
1012	0.071				
1013	0.073				
1014	0.077				
1015	0.08				
1016	0.083				
1017	0.086				
1018	0.089				
1019	0.091				
1020	0.092				
1021	0.093				
1022	0.093				
1023	0.092				
1024	0.091				
1025	0.089				
1026	0.087				
1027	0.084				
1028	0.081				
1029	0.079				
1030	0.076				
1031	0.074				
1032	0.072				
1033	0.07				
1034	0.069				
1035	0.068				
1036	0.068				
1037	0.068				
1038	0.068				
1039	0.069				
1040	0.071				
1041	0.073				
1042	0.075				
1043	0.079				
1044	0.083				
1045	0.088				
1046	0.094				
1047	0.101				
1048	0.11				
1049	0.12				
1050	0.133				
1051	0.148				
1052	0.167				
1053	0.189				
1054	0.217				
1055	0.252				
1056	0.294				
1057	0.349				
1058	0.421				
1059	0.513				
1060	0.636				
1061	0.808				
1062	1.04				
1063	1.365				
1064	1.781				
1065	2.33				
1066	3.175				
1067	4.527				
1068	6.716				
1069	10.69				
1070	18.757				
1071	35.417				
1072	66.044				
1073	83.026				
1074	61.108				
1075	37.098				
1076	23.687				
1077	16.459				
1078	12.308				
1079	9.806				
1080	8.093				
1081	6.949				
1082	6.139				
1083	5.533				
1084	5.103				
1085	4.765				
1086	4.523				
1087	4.35				
1088	4.216				
1089	4.135				
1090	4.092				
1091	4.071				
1092	4.081				
1093	4.126				
1094	4.197				
1095	4.281				
1096	4.39				
1097	4.524				
1098	4.665				
1099	4.821				
1100					
