Wavelength	Transmittance	hex_color	Manufacturer	Name	Filter Number
300	0.0		Chroma		ET632/28m
301	0.0				
302	0.0				
303	0.0				
304	0.0				
305	0.0				
306	0.0				
307	0.0				
308	0.0				
309	0.0				
310	0.0				
311	0.0				
312	0.0				
313	0.0				
314	0.0				
315	0.0				
316	0.0				
317	0.0				
318	0.0				
319	0.0				
320	0.0				
321	0.0				
322	0.0				
323	0.0				
324	0.0				
325	0.0				
326	0.0				
327	0.0				
328	0.0				
329	0.0				
330	0.0				
331	0.0				
332	0.0				
333	0.0				
334	0.0				
335	0.0				
336	0.0				
337	0.0				
338	0.0				
339	0.0				
340	0.0				
341	0.0				
342	0.0				
343	0.0				
344	0.0				
345	0.0				
346	0.0				
347	0.0				
348	0.0				
349	0.0				
350	0.0				
351	0.0				
352	0.0				
353	0.0				
354	0.0				
355	0.0				
356	0.0				
357	0.0				
358	0.0				
359	0.0				
360	0.0				
361	0.0				
362	0.0				
363	0.0				
364	0.0				
365	0.0				
366	0.0				
367	0.0				
368	0.0				
369	0.0				
370	0.0				
371	0.0				
372	0.0				
373	0.0				
374	0.0				
375	0.0				
376	0.0				
377	0.0				
378	0.0				
379	0.0				
380	0.0				
381	0.0				
382	0.0				
383	0.0				
384	0.0				
385	0.0				
386	0.0				
387	0.0				
388	0.0				
389	0.0				
390	0.0				
391	0.0				
392	0.0				
393	0.0				
394	0.0				
395	0.0				
396	0.0				
397	0.0				
398	0.0				
399	0.0				
400	0.0				
401	0.0				
402	0.0				
403	0.0				
404	0.0				
405	0.0				
406	0.0				
407	0.0				
408	0.0				
409	0.0				
410	0.0				
411	0.0				
412	0.0				
413	0.0				
414	0.0				
415	0.0				
416	0.0				
417	0.0				
418	0.0				
419	0.001				
420	0.0				
421	0.0				
422	0.0				
423	0.0				
424	0.0				
425	0.0				
426	0.0				
427	0.0				
428	0.0				
429	0.0				
430	0.0				
431	0.0				
432	0.0				
433	0.0				
434	0.0				
435	0.0				
436	0.0				
437	0.0				
438	0.0				
439	0.0				
440	0.0				
441	0.0				
442	0.0				
443	0.0				
444	0.0				
445	0.0				
446	0.0				
447	0.0				
448	0.0				
449	0.0				
450	0.0				
451	0.0				
452	0.0				
453	0.0				
454	0.0				
455	0.0				
456	0.0				
457	0.0				
458	0.0				
459	0.0				
460	0.0				
461	0.0				
462	0.0				
463	0.0				
464	0.0				
465	0.0				
466	0.0				
467	0.0				
468	0.0				
469	0.0				
470	0.0				
471	0.0				
472	0.0				
473	0.0				
474	0.0				
475	0.0				
476	0.0				
477	0.0				
478	0.0				
479	0.0				
480	0.0				
481	0.0				
482	0.0				
483	0.0				
484	0.0				
485	0.0				
486	0.0				
487	0.0				
488	0.0				
489	0.0				
490	0.0				
491	0.0				
492	0.0				
493	0.0				
494	0.0				
495	0.0				
496	0.0				
497	0.0				
498	0.0				
499	0.0				
500	0.0				
501	0.0				
502	0.0				
503	0.0				
504	0.0				
505	0.0				
506	0.0				
507	0.0				
508	0.0				
509	0.0				
510	0.0				
511	0.0				
512	0.0				
513	0.0				
514	0.0				
515	0.0				
516	0.0				
517	0.0				
518	0.0				
519	0.0				
520	0.0				
521	0.0				
522	0.0				
523	0.0				
524	0.0				
525	0.0				
526	0.0				
527	0.0				
528	0.0				
529	0.0				
530	0.0				
531	0.0				
532	0.0				
533	0.0				
534	0.0				
535	0.0				
536	0.0				
537	0.0				
538	0.0				
539	0.0				
540	0.0				
541	0.0				
542	0.0				
543	0.0				
544	0.0				
545	0.0				
546	0.0				
547	0.0				
548	0.0				
549	0.0				
550	0.0				
551	0.0				
552	0.0				
553	0.0				
554	0.0				
555	0.0				
556	0.0				
557	0.0				
558	0.0				
559	0.0				
560	0.0				
561	0.0				
562	0.0				
563	0.0				
564	0.0				
565	0.0				
566	0.0				
567	0.0				
568	0.0				
569	0.0				
570	0.0				
571	0.0				
572	0.0				
573	0.0				
574	0.0				
575	0.0				
576	0.0				
577	0.0				
578	0.0				
579	0.0				
580	0.0				
581	0.0				
582	0.0				
583	0.0				
584	0.0				
585	0.0				
586	0.0				
587	0.0				
588	0.0				
589	0.0				
590	0.0				
591	0.0				
592	0.0				
593	0.0				
594	0.0				
595	0.0				
596	0.0				
597	0.0				
598	0.0				
599	0.0				
600	0.0				
601	0.0				
602	0.0				
603	0.0				
604	0.0				
605	0.0				
606	0.0				
607	0.0				
608	0.0				
609	0.0				
610	0.0				
611	0.0				
612	0.0				
613	0.001				
614	0.011				
615	0.197				
616	9.721				
617	72.864				
618	96.843				
619	97.513				
620	98.316				
621	97.89				
622	97.432				
623	98.468				
624	98.191				
625	98.109				
626	98.707				
627	98.444				
628	98.176				
629	98.805				
630	98.548				
631	97.999				
632	97.91				
633	98.537				
634	98.558				
635	97.6				
636	96.611				
637	96.727				
638	97.91				
639	98.651				
640	98.422				
641	98.33				
642	98.206				
643	96.833				
644	77.621				
645	28.314				
646	4.667				
647	0.942				
648	0.219				
649	0.061				
650	0.021				
651	0.008				
652	0.003				
653	0.002				
654	0.001				
655	0.0				
656	0.0				
657	0.0				
658	0.0				
659	0.0				
660	0.0				
661	0.0				
662	0.0				
663	0.0				
664	0.0				
665	0.0				
666	0.0				
667	0.0				
668	0.0				
669	0.0				
670	0.0				
671	0.002				
672	0.008				
673	0.003				
674	0.001				
675	0.0				
676	0.0				
677	0.0				
678	0.0				
679	0.0				
680	0.0				
681	0.0				
682	0.001				
683	0.001				
684	0.002				
685	0.004				
686	0.007				
687	0.009				
688	0.007				
689	0.007				
690	0.007				
691	0.009				
692	0.01				
693	0.009				
694	0.006				
695	0.005				
696	0.004				
697	0.004				
698	0.004				
699	0.005				
700	0.008				
701	0.012				
702	0.01				
703	0.005				
704	0.003				
705	0.002				
706	0.001				
707	0.001				
708	0.001				
709	0.001				
710	0.001				
711	0.001				
712	0.001				
713	0.002				
714	0.004				
715	0.007				
716	0.01				
717	0.009				
718	0.006				
719	0.004				
720	0.003				
721	0.002				
722	0.002				
723	0.003				
724	0.003				
725	0.004				
726	0.005				
727	0.007				
728	0.01				
729	0.012				
730	0.012				
731	0.011				
732	0.009				
733	0.009				
734	0.008				
735	0.008				
736	0.009				
737	0.009				
738	0.009				
739	0.009				
740	0.007				
741	0.006				
742	0.004				
743	0.003				
744	0.003				
745	0.002				
746	0.002				
747	0.002				
748	0.002				
749	0.002				
750	0.002				
751	0.002				
752	0.002				
753	0.003				
754	0.003				
755	0.004				
756	0.006				
757	0.008				
758	0.01				
759	0.01				
760	0.008				
761	0.006				
762	0.005				
763	0.004				
764	0.003				
765	0.003				
766	0.003				
767	0.003				
768	0.003				
769	0.004				
770	0.004				
771	0.005				
772	0.006				
773	0.007				
774	0.008				
775	0.009				
776	0.009				
777	0.009				
778	0.009				
779	0.009				
780	0.009				
781	0.009				
782	0.009				
783	0.01				
784	0.011				
785	0.011				
786	0.011				
787	0.011				
788	0.011				
789	0.011				
790	0.011				
791	0.011				
792	0.01				
793	0.01				
794	0.011				
795	0.012				
796	0.012				
797	0.013				
798	0.013				
799	0.013				
800	0.013				
801	0.012				
802	0.011				
803	0.011				
804	0.01				
805	0.011				
806	0.01				
807	0.01				
808	0.009				
809	0.009				
810	0.009				
811	0.008				
812	0.008				
813	0.007				
814	0.007				
815	0.007				
816	0.007				
817	0.006				
818	0.007				
819	0.007				
820	0.007				
821	0.008				
822	0.008				
823	0.009				
824	0.01				
825	0.01				
826	0.01				
827	0.009				
828	0.009				
829	0.008				
830	0.009				
831	0.008				
832	0.008				
833	0.007				
834	0.007				
835	0.008				
836	0.008				
837	0.008				
838	0.008				
839	0.008				
840	0.009				
841	0.008				
842	0.009				
843	0.009				
844	0.009				
845	0.009				
846	0.008				
847	0.007				
848	0.009				
849	0.009				
850	0.009				
851	0.009				
852	0.009				
853	0.009				
854	0.009				
855	0.009				
856	0.009				
857	0.009				
858	0.009				
859	0.009				
860	0.009				
861	0.009				
862	0.009				
863	0.009				
864	0.009				
865	0.009				
866	0.009				
867	0.009				
868	0.009				
869	0.009				
870	0.008				
871	0.008				
872	0.008				
873	0.008				
874	0.007				
875	0.007				
876	0.006				
877	0.006				
878	0.006				
879	0.005				
880	0.005				
881	0.005				
882	0.005				
883	0.005				
884	0.005				
885	0.005				
886	0.006				
887	0.006				
888	0.006				
889	0.006				
890	0.006				
891	0.006				
892	0.006				
893	0.006				
894	0.006				
895	0.006				
896	0.006				
897	0.005				
898	0.005				
899	0.005				
900	0.005				
901	0.005				
902	0.005				
903	0.006				
904	0.006				
905	0.007				
906	0.007				
907	0.009				
908	0.01				
909	0.012				
910	0.016				
911	0.021				
912	0.028				
913	0.04				
914	0.06				
915	0.089				
916	0.132				
917	0.225				
918	0.498				
919	2.027				
920	11.277				
921	16.957				
922	10.988				
923	6.3				
924	3.743				
925	1.828				
926	0.467				
927	0.284				
928	0.229				
929	0.204				
930	0.193				
931	0.191				
932	0.196				
933	0.208				
934	0.227				
935	0.256				
936	0.297				
937	0.357				
938	0.441				
939	0.564				
940	0.742				
941	1.006				
942	1.472				
943	2.362				
944	4.232				
945	8.863				
946	18.901				
947	23.649				
948	15.935				
949	8.961				
950	5.17				
951	3.39				
952	2.468				
953	1.944				
954	1.643				
955	1.475				
956	1.395				
957	1.386				
958	1.441				
959	1.552				
960	1.732				
961	2.018				
962	2.426				
963	3.053				
964	3.944				
965	5.207				
966	7.027				
967	9.131				
968	11.022				
969	11.894				
970	11.421				
971	10.202				
972	8.931				
973	7.899				
974	7.228				
975	6.875				
976	6.861				
977	7.159				
978	7.824				
979	9.047				
980	10.868				
981	13.774				
982	18.25				
983	24.536				
984	31.67				
985	35.385				
986	32.69				
987	25.87				
988	19.699				
989	14.943				
990	11.889				
991	9.866				
992	8.547				
993	7.767				
994	7.371				
995	7.295				
996	7.496				
997	8.037				
998	8.935				
999	10.386				
1000	12.541				
