Wavelength	Transmittance	hex_color	Manufacturer	Name	Filter Number
380	0.354		Chroma	2.5 - .3% Trans V2 0.3% transmission	ND 2.5 - .3% Trans V2 0.3% transmission
381	0.367				
382	0.371				
383	0.358				
384	0.362				
385	0.371				
386	0.381				
387	0.376				
388	0.383				
389	0.364				
390	0.366				
391	0.368				
392	0.384				
393	0.38				
394	0.378				
395	0.372				
396	0.378				
397	0.381				
398	0.381				
399	0.378				
400	0.375				
401	0.38				
402	0.379				
403	0.399				
404	0.385				
405	0.388				
406	0.38				
407	0.382				
408	0.37				
409	0.38				
410	0.384				
411	0.384				
412	0.394				
413	0.388				
414	0.403				
415	0.382				
416	0.383				
417	0.385				
418	0.393				
419	0.377				
420	0.373				
421	0.377				
422	0.382				
423	0.392				
424	0.379				
425	0.371				
426	0.371				
427	0.362				
428	0.36				
429	0.363				
430	0.366				
431	0.372				
432	0.36				
433	0.367				
434	0.363				
435	0.381				
436	0.34				
437	0.368				
438	0.362				
439	0.367				
440	0.364				
441	0.359				
442	0.366				
443	0.356				
444	0.364				
445	0.371				
446	0.347				
447	0.361				
448	0.351				
449	0.356				
450	0.349				
451	0.365				
452	0.351				
453	0.356				
454	0.346				
455	0.352				
456	0.347				
457	0.364				
458	0.346				
459	0.361				
460	0.356				
461	0.344				
462	0.351				
463	0.361				
464	0.355				
465	0.347				
466	0.356				
467	0.342				
468	0.353				
469	0.359				
470	0.349				
471	0.357				
472	0.338				
473	0.336				
474	0.356				
475	0.352				
476	0.349				
477	0.35				
478	0.353				
479	0.344				
480	0.357				
481	0.358				
482	0.35				
483	0.333				
484	0.348				
485	0.352				
486	0.352				
487	0.358				
488	0.347				
489	0.347				
490	0.353				
491	0.357				
492	0.343				
493	0.351				
494	0.345				
495	0.346				
496	0.339				
497	0.346				
498	0.348				
499	0.341				
500	0.357				
501	0.344				
502	0.35				
503	0.337				
504	0.334				
505	0.336				
506	0.335				
507	0.343				
508	0.352				
509	0.357				
510	0.345				
511	0.347				
512	0.34				
513	0.346				
514	0.331				
515	0.345				
516	0.343				
517	0.332				
518	0.352				
519	0.342				
520	0.333				
521	0.345				
522	0.343				
523	0.33				
524	0.328				
525	0.342				
526	0.342				
527	0.333				
528	0.333				
529	0.325				
530	0.34				
531	0.33				
532	0.326				
533	0.344				
534	0.321				
535	0.334				
536	0.335				
537	0.331				
538	0.339				
539	0.34				
540	0.323				
541	0.334				
542	0.346				
543	0.335				
544	0.33				
545	0.338				
546	0.336				
547	0.338				
548	0.339				
549	0.329				
550	0.334				
551	0.334				
552	0.335				
553	0.339				
554	0.352				
555	0.335				
556	0.332				
557	0.333				
558	0.336				
559	0.33				
560	0.336				
561	0.331				
562	0.34				
563	0.336				
564	0.327				
565	0.334				
566	0.343				
567	0.345				
568	0.343				
569	0.344				
570	0.336				
571	0.339				
572	0.327				
573	0.337				
574	0.342				
575	0.332				
576	0.341				
577	0.343				
578	0.346				
579	0.348				
580	0.348				
581	0.339				
582	0.342				
583	0.345				
584	0.343				
585	0.341				
586	0.345				
587	0.344				
588	0.34				
589	0.333				
590	0.336				
591	0.351				
592	0.336				
593	0.345				
594	0.335				
595	0.345				
596	0.346				
597	0.347				
598	0.351				
599	0.338				
600	0.342				
601	0.341				
602	0.347				
603	0.34				
604	0.345				
605	0.341				
606	0.339				
607	0.342				
608	0.356				
609	0.351				
610	0.348				
611	0.353				
612	0.35				
613	0.352				
614	0.344				
615	0.347				
616	0.346				
617	0.352				
618	0.347				
619	0.351				
620	0.352				
621	0.343				
622	0.346				
623	0.343				
624	0.349				
625	0.341				
626	0.349				
627	0.349				
628	0.346				
629	0.348				
630	0.353				
631	0.352				
632	0.348				
633	0.343				
634	0.345				
635	0.339				
636	0.344				
637	0.35				
638	0.353				
639	0.348				
640	0.348				
641	0.352				
642	0.351				
643	0.358				
644	0.348				
645	0.357				
646	0.361				
647	0.349				
648	0.35				
649	0.356				
650	0.351				
651	0.352				
652	0.347				
653	0.339				
654	0.352				
655	0.349				
656	0.341				
657	0.354				
658	0.355				
659	0.357				
660	0.347				
661	0.355				
662	0.363				
663	0.348				
664	0.346				
665	0.344				
666	0.352				
667	0.352				
668	0.361				
669	0.355				
670	0.354				
671	0.351				
672	0.35				
673	0.352				
674	0.35				
675	0.354				
676	0.358				
677	0.36				
678	0.353				
679	0.357				
680	0.351				
681	0.355				
682	0.371				
683	0.356				
684	0.357				
685	0.361				
686	0.36				
687	0.361				
688	0.352				
689	0.366				
690	0.371				
691	0.353				
692	0.377				
693	0.353				
694	0.353				
695	0.358				
696	0.37				
697	0.351				
698	0.377				
699	0.361				
700	0.363				
701	0.353				
702	0.364				
703	0.367				
704	0.349				
705	0.353				
706	0.375				
707	0.362				
708	0.354				
709	0.363				
710	0.36				
711	0.362				
712	0.377				
713	0.371				
714	0.37				
715	0.366				
716	0.373				
717	0.366				
718	0.374				
719	0.371				
720	0.375				
721	0.373				
722	0.362				
723	0.374				
724	0.373				
725	0.369				
726	0.379				
727	0.373				
728	0.368				
729	0.383				
730	0.369				
731	0.37				
732	0.366				
733	0.375				
734	0.376				
735	0.376				
736	0.379				
737	0.371				
738	0.378				
739	0.382				
740	0.378				
741	0.384				
742	0.37				
743	0.366				
744	0.37				
745	0.366				
746	0.371				
747	0.376				
748	0.376				
749	0.378				
750	0.375				
751	0.38				
752	0.367				
753	0.37				
754	0.371				
755	0.38				
756	0.378				
757	0.383				
758	0.392				
759	0.383				
760	0.386				
761	0.385				
762	0.387				
763	0.389				
764	0.382				
765	0.377				
766	0.379				
767	0.378				
768	0.387				
769	0.386				
770	0.383				
771	0.396				
772	0.391				
773	0.381				
774	0.397				
775	0.379				
776	0.395				
777	0.388				
778	0.394				
779	0.391				
780	0.401				
781	0.393				
782	0.39				
783	0.389				
784	0.393				
785	0.395				
786	0.394				
787	0.402				
788	0.393				
789	0.389				
790	0.391				
791	0.397				
792	0.379				
793	0.388				
794	0.391				
795	0.392				
796	0.387				
797	0.385				
798	0.386				
799	0.392				
800	0.397				
801	0.385				
802	0.4				
803	0.416				
804	0.394				
805	0.387				
806	0.399				
807	0.407				
808	0.396				
809	0.395				
810	0.401				
811	0.404				
812	0.397				
813	0.402				
814	0.396				
815	0.405				
816	0.407				
817	0.398				
818	0.389				
819	0.398				
820	0.399				
821	0.405				
822	0.408				
823	0.395				
824	0.403				
825	0.4				
826	0.394				
827	0.406				
828	0.398				
829	0.397				
830	0.394				
831	0.406				
832	0.415				
833	0.393				
834	0.407				
835	0.409				
836	0.402				
837	0.398				
838	0.406				
839	0.402				
840	0.394				
841	0.396				
842	0.4				
843	0.407				
844	0.405				
845	0.404				
846	0.394				
847	0.401				
848	0.399				
849	0.42				
850	0.407				
851	0.397				
852	0.386				
853	0.389				
854	0.352				
855	0.117				
856	0.149				
857	0.0				
858	0.0				
859	0.0				
860					
