Wavelength	Transmittance	hex_color	Manufacturer	Name	Filter Number
300	0.0		Chroma		RET792lp
301	0.0				
302	0.0				
303	0.0				
304	0.0				
305	0.0				
306	0.0				
307	0.0				
308	0.0				
309	0.0				
310	0.0				
311	0.0				
312	0.0				
313	0.0				
314	0.0				
315	0.0				
316	0.0				
317	0.0				
318	0.0				
319	0.0				
320	0.0				
321	0.0				
322	0.0				
323	0.0				
324	0.0				
325	0.0				
326	0.0				
327	0.0				
328	0.0				
329	0.0				
330	0.0				
331	0.0				
332	0.0				
333	0.0				
334	0.0				
335	0.0				
336	0.0				
337	0.0				
338	0.0				
339	0.0				
340	0.0				
341	0.0				
342	0.002				
343	0.004				
344	0.01				
345	0.02				
346	0.041				
347	0.083				
348	0.159				
349	0.273				
350	0.458				
351	0.722				
352	1.14				
353	1.7				
354	2.5				
355	3.56				
356	4.96				
357	6.61				
358	8.36				
359	10.1				
360	11.3				
361	11.1				
362	9.72				
363	5.64				
364	1.16				
365	0.017				
366	0.001				
367	0.0				
368	0.0				
369	0.0				
370	0.0				
371	0.001				
372	0.013				
373	1.16				
374	19.5				
375	39.4				
376	51.6				
377	48.6				
378	51.1				
379	51.7				
380	51.1				
381	52.5				
382	51.5				
383	49.7				
384	53.4				
385	51.0				
386	51.8				
387	54.1				
388	52.4				
389	54.5				
390	53.5				
391	52.5				
392	53.9				
393	50.0				
394	51.6				
395	48.5				
396	48.6				
397	47.9				
398	46.5				
399	47.9				
400	46.1				
401	48.6				
402	45.7				
403	48.9				
404	46.9				
405	49.2				
406	46.6				
407	48.9				
408	46.7				
409	48.6				
410	46.2				
411	48.5				
412	46.3				
413	48.6				
414	46.9				
415	48.3				
416	46.8				
417	48.3				
418	46.3				
419	48.9				
420	45.3				
421	49.3				
422	46.0				
423	48.4				
424	49.1				
425	48.0				
426	52.3				
427	49.8				
428	54.0				
429	53.0				
430	55.2				
431	55.7				
432	56.9				
433	56.4				
434	58.0				
435	56.9				
436	55.0				
437	59.9				
438	52.8				
439	58.3				
440	57.8				
441	51.5				
442	62.9				
443	55.8				
444	57.3				
445	66.5				
446	57.3				
447	64.8				
448	69.2				
449	63.2				
450	70.7				
451	72.5				
452	67.1				
453	70.7				
454	75.6				
455	67.5				
456	68.8				
457	78.1				
458	64.6				
459	65.0				
460	79.5				
461	63.1				
462	61.9				
463	80.3				
464	65.6				
465	62.0				
466	81.4				
467	72.0				
468	64.8				
469	81.3				
470	82.1				
471	72.9				
472	79.6				
473	87.5				
474	82.7				
475	78.8				
476	88.2				
477	89.6				
478	76.2				
479	82.5				
480	91.5				
481	73.4				
482	73.6				
483	90.2				
484	70.3				
485	60.4				
486	83.2				
487	75.1				
488	54.4				
489	71.7				
490	80.4				
491	54.2				
492	58.5				
493	80.0				
494	62.3				
495	53.5				
496	71.8				
497	69.8				
498	56.7				
499	65.8				
500	68.9				
501	59.6				
502	66.5				
503	69.2				
504	57.8				
505	64.3				
506	73.1				
507	57.0				
508	56.2				
509	74.0				
510	62.0				
511	49.8				
512	66.5				
513	68.6				
514	47.6				
515	54.2				
516	70.9				
517	51.6				
518	43.9				
519	63.4				
520	59.3				
521	40.0				
522	49.1				
523	62.4				
524	43.3				
525	38.9				
526	56.9				
527	49.0				
528	33.0				
529	44.9				
530	54.8				
531	32.4				
532	29.4				
533	51.6				
534	44.1				
535	24.3				
536	33.2				
537	55.0				
538	32.3				
539	21.8				
540	41.1				
541	51.1				
542	25.2				
543	25.4				
544	51.3				
545	40.6				
546	22.3				
547	35.1				
548	53.3				
549	28.1				
550	23.7				
551	48.5				
552	40.6				
553	20.1				
554	32.5				
555	50.0				
556	21.6				
557	17.0				
558	42.6				
559	35.5				
560	13.1				
561	21.5				
562	46.3				
563	19.0				
564	11.4				
565	33.9				
566	33.6				
567	9.82				
568	16.7				
569	40.9				
570	13.8				
571	8.32				
572	32.1				
573	22.8				
574	6.16				
575	19.8				
576	29.1				
577	5.78				
578	12.2				
579	29.0				
580	5.3				
581	7.7				
582	25.4				
583	4.44				
584	6.21				
585	20.2				
586	2.6				
587	6.96				
588	13.1				
589	1.16				
590	9.25				
591	4.67				
592	2.84				
593	6.3				
594	1.03				
595	4.19				
596	0.839				
597	1.87				
598	0.768				
599	0.296				
600	0.063				
601	0.001				
602	0.0				
603	0.0				
604	0.0				
605	0.0				
606	0.0				
607	0.0				
608	0.0				
609	0.0				
610	0.0				
611	0.0				
612	0.0				
613	0.0				
614	0.0				
615	0.0				
616	0.0				
617	0.0				
618	0.0				
619	0.0				
620	0.0				
621	0.0				
622	0.0				
623	0.0				
624	0.0				
625	0.0				
626	0.0				
627	0.0				
628	0.0				
629	0.0				
630	0.0				
631	0.0				
632	0.0				
633	0.0				
634	0.0				
635	0.0				
636	0.0				
637	0.0				
638	0.0				
639	0.0				
640	0.0				
641	0.0				
642	0.0				
643	0.0				
644	0.0				
645	0.0				
646	0.0				
647	0.0				
648	0.0				
649	0.0				
650	0.0				
651	0.0				
652	0.0				
653	0.0				
654	0.0				
655	0.0				
656	0.0				
657	0.0				
658	0.0				
659	0.0				
660	0.0				
661	0.0				
662	0.0				
663	0.0				
664	0.0				
665	0.0				
666	0.0				
667	0.0				
668	0.0				
669	0.0				
670	0.0				
671	0.0				
672	0.0				
673	0.0				
674	0.0				
675	0.0				
676	0.0				
677	0.0				
678	0.0				
679	0.0				
680	0.0				
681	0.0				
682	0.0				
683	0.0				
684	0.0				
685	0.0				
686	0.0				
687	0.0				
688	0.0				
689	0.0				
690	0.0				
691	0.0				
692	0.0				
693	0.0				
694	0.0				
695	0.0				
696	0.0				
697	0.0				
698	0.0				
699	0.0				
700	0.0				
701	0.0				
702	0.0				
703	0.0				
704	0.0				
705	0.0				
706	0.0				
707	0.0				
708	0.0				
709	0.0				
710	0.0				
711	0.0				
712	0.0				
713	0.0				
714	0.0				
715	0.0				
716	0.0				
717	0.0				
718	0.0				
719	0.0				
720	0.0				
721	0.0				
722	0.0				
723	0.0				
724	0.0				
725	0.0				
726	0.0				
727	0.0				
728	0.0				
729	0.0				
730	0.0				
731	0.0				
732	0.0				
733	0.0				
734	0.0				
735	0.0				
736	0.0				
737	0.0				
738	0.0				
739	0.0				
740	0.0				
741	0.0				
742	0.0				
743	0.0				
744	0.0				
745	0.0				
746	0.0				
747	0.0				
748	0.0				
749	0.0				
750	0.0				
751	0.0				
752	0.0				
753	0.0				
754	0.0				
755	0.0				
756	0.0				
757	0.0				
758	0.0				
759	0.0				
760	0.0				
761	0.0				
762	0.0				
763	0.0				
764	0.0				
765	0.0				
766	0.0				
767	0.0				
768	0.0				
769	0.0				
770	0.0				
771	0.0				
772	0.0				
773	0.0				
774	0.0				
775	0.0				
776	0.0				
777	0.0				
778	0.0				
779	0.0				
780	0.0				
781	0.0				
782	0.0				
783	0.0				
784	0.0				
785	0.0				
786	0.0				
787	0.0				
788	0.0				
789	0.006				
790	0.17				
791	16.9				
792	87.4				
793	98.1				
794	98.9				
795	98.7				
796	99.2				
797	99.2				
798	99.2				
799	98.2				
800	98.0				
801	98.9				
802	99.1				
803	98.3				
804	98.2				
805	99.3				
806	99.1				
807	98.4				
808	98.5				
809	99.0				
810	99.3				
811	98.6				
812	98.5				
813	98.7				
814	99.2				
815	99.3				
816	98.9				
817	98.6				
818	98.6				
819	99.1				
820	99.1				
821	99.1				
822	98.8				
823	98.7				
824	99.0				
825	99.1				
826	99.4				
827	99.1				
828	98.9				
829	98.8				
830	98.8				
831	99.2				
832	99.4				
833	99.4				
834	98.9				
835	98.9				
836	99.0				
837	99.2				
838	99.5				
839	99.6				
840	99.4				
841	99.0				
842	98.8				
843	99.1				
844	99.0				
845	99.2				
846	99.2				
847	99.4				
848	99.5				
849	99.1				
850	98.6				
851	98.8				
852	99.1				
853	99.3				
854	99.3				
855	99.1				
856	98.8				
857	98.6				
858	98.6				
859	98.9				
860	99.1				
861	99.3				
862	99.3				
863	99.1				
864	98.9				
865	98.6				
866	98.6				
867	98.7				
868	99.0				
869	99.2				
870	99.4				
871	99.3				
872	99.1				
873	98.8				
874	98.7				
875	98.7				
876	98.8				
877	99.1				
878	99.3				
879	99.4				
880	99.4				
881	99.2				
882	99.1				
883	99.0				
884	99.0				
885	99.1				
886	99.3				
887	99.4				
888	99.4				
889	99.4				
890	99.2				
891	99.1				
892	99.1				
893	99.1				
894	99.2				
895	99.4				
896	99.4				
897	99.4				
898	99.1				
899	98.7				
900	98.4				
901	98.2				
902	98.2				
903	98.4				
904	98.8				
905	99.1				
906	99.4				
907	99.4				
908	99.2				
909	98.7				
910	98.2				
911	97.7				
912	97.5				
913	97.6				
914	97.9				
915	98.4				
916	98.9				
917	99.3				
918	99.4				
919	99.2				
920	98.8				
921	98.2				
922	97.6				
923	97.3				
924	97.1				
925	97.3				
926	97.7				
927	98.3				
928	98.8				
929	99.2				
930	99.2				
931	99.1				
932	98.7				
933	98.2				
934	97.7				
935	97.5				
936	97.4				
937	97.5				
938	97.8				
939	98.3				
940	98.6				
941	98.9				
942	99.0				
943	99.0				
944	98.8				
945	98.6				
946	98.3				
947	98.2				
948	98.2				
949	98.3				
950	98.5				
951	98.7				
952	98.9				
953	98.9				
954	98.9				
955	98.8				
956	98.7				
957	98.5				
958	98.4				
959	98.4				
960	98.4				
961	98.6				
962	98.8				
963	99.0				
964	99.2				
965	99.3				
966	99.3				
967	99.1				
968	99.0				
969	98.8				
970	98.6				
971	98.5				
972	98.4				
973	98.4				
974	98.6				
975	98.8				
976	99.0				
977	99.2				
978	99.3				
979	99.4				
980	99.4				
981	99.3				
982	99.1				
983	98.9				
984	98.8				
985	98.7				
986	98.5				
987	98.5				
988	98.6				
989	98.6				
990	98.8				
991	98.9				
992	99.0				
993	99.1				
994	99.2				
995	99.2				
996	99.2				
997	99.2				
998	99.2				
999	99.1				
1000	99.0				
1001	98.9				
1002	98.8				
1003	98.8				
1004	98.7				
1005	98.7				
1006	98.7				
1007	98.7				
1008	98.7				
1009	98.8				
1010	99.0				
1011	99.1				
1012	99.2				
1013	99.3				
1014	99.3				
1015	99.3				
1016	99.3				
1017	99.3				
1018	99.2				
1019	99.1				
1020	99.0				
1021	98.9				
1022	98.8				
1023	98.8				
1024	98.8				
1025	98.8				
1026	98.9				
1027	98.9				
1028	99.0				
1029	99.0				
1030	99.0				
1031	98.9				
1032	98.9				
1033	98.9				
1034	98.9				
1035	98.9				
1036	99.0				
1037	99.0				
1038	99.1				
1039	99.1				
1040	99.1				
1041	99.1				
1042	99.0				
1043	98.9				
1044	98.7				
1045	98.5				
1046	98.3				
1047	98.1				
1048	97.9				
1049	97.9				
1050	97.9				
1051	98.0				
1052	98.2				
1053	98.4				
1054	98.7				
1055	99.0				
1056	99.2				
1057	99.3				
1058	99.3				
1059	99.2				
1060	98.9				
1061	98.6				
1062	98.2				
1063	97.8				
1064	97.5				
1065	97.2				
1066	97.0				
1067	97.0				
1068	97.1				
1069	97.3				
1070	97.7				
1071	98.1				
1072	98.5				
1073	98.9				
1074	99.1				
1075	99.3				
1076	99.3				
1077	99.2				
1078	99.0				
1079	98.7				
1080	98.2				
1081	97.8				
1082	97.5				
1083	97.2				
1084	97.0				
1085	97.0				
1086	97.1				
1087	97.4				
1088	97.6				
1089	98.0				
1090	98.4				
1091	98.7				
1092	99.0				
1093	99.2				
1094	99.3				
1095	99.3				
1096	99.1				
1097	99.0				
1098	98.7				
1099	98.4				
1100	98.2				
